#   1 XWIN_IMAGE             Windowed position estimate along x                         [pixel]
#   2 YWIN_IMAGE             Windowed position estimate along y                         [pixel]
#   3 ALPHA_J2000            Right ascension of barycenter (J2000)                      [deg]
#   4 DELTA_J2000            Declination of barycenter (J2000)                          [deg]
#   5 MAG_AUTO               Kron-like elliptical aperture magnitude                    [mag]
#   6 FWHM_IMAGE             FWHM assuming a gaussian core                              [pixel]
#   7 ELONGATION             A_IMAGE/B_IMAGE                                           
#   8 MAG_APER               Fixed aperture magnitude vector                            [mag]
#  13 MAGERR_APER            RMS error vector for fixed aperture mag.                   [mag]
#  18 FLUX_APER              Flux vector within fixed circular aperture(s)              [count]
#  23 FLUXERR_APER           RMS error vector for aperture flux(es)                     [count]
    14.0160    100.1425 213.2279873 -10.2739837 -12.1628     6.65    2.717  -7.0096  -8.9019  -9.9939 -11.0557   0.0000   0.8066   0.4211   0.2566   0.1732   0.0000     636.5646     3637.038     9943.592     26440.62            0     472.7716     1410.411     2349.628      4216.68            0
   236.6065    235.3644 213.2198187 -10.2691009  99.0000     5.53    1.767  99.0000  99.0000  99.0000  99.0000   0.0000  99.0000  99.0000  99.0000  99.0000   0.0000    -14.56171    -98.36613    -1926.884     -6863.46            0     484.4447     1414.364     2347.243      4214.02            0
   224.3809    225.5112 213.2202673 -10.2694567  -6.5391     5.33    3.687  -6.2228  -8.1513  -8.6534  99.0000   0.0000   1.6227   0.8336   0.8793  99.0000   0.0000     308.4016     1821.868     2893.157    -1223.862            0     460.7998     1398.473     2342.479      4216.67            0
    66.8068    214.5148 213.2260499 -10.2698537  99.0000     5.01    1.842  99.0000  -7.7550  -7.1009  99.0000   0.0000  99.0000   1.2111   3.6815  99.0000   0.0000    -27.54061     1264.748     692.4091     -3738.04            0     460.7989     1410.409     2347.243     4217.996            0
   235.8437    211.0820 213.2198285 -10.2699885  -7.3108     4.48    2.539  -6.6232  -8.5280  -8.1725  99.0000   0.0000   1.1514   0.5926   1.3720  99.0000   0.0000     445.9335     2577.426     1857.887    -2583.154            0      472.771     1406.443     2347.244     4217.996            0
   146.1001    169.3966 213.2231319 -10.2714487  -8.7947     6.50    2.238  -6.4513  -8.2497  -8.7754  -8.1297   0.0000   1.3489   0.7636   0.7842   2.5631   0.0000     380.6321     1994.626     3237.167     1786.071            0     472.7708     1402.464     2337.703     4215.346            0
   231.6101    167.9168 213.2200020 -10.2715364  -5.5961     5.06    3.635  -5.9221  -6.7174  -8.5123  -7.9988   0.0000   2.1405   3.1405   1.0023   2.8926   0.0000     233.7892     486.3607     2540.575     1583.089            0     460.7996     1406.441     2344.863     4216.671            0
    96.9621    158.3870 213.2249433 -10.2718805  -7.9433     3.36    8.377  -6.4071  -7.5737  -8.2844  99.0000   0.0000   1.4396   1.4392   1.2377  99.0000   0.0000     365.4546      1070.24     2059.544    -585.4141            0     484.4458      1418.31     2347.244      4216.67            0
   319.8181    150.1243 213.2167688 -10.2722076  -8.1706     4.20    2.482  -6.2650  -9.0525  -8.9489  99.0000   0.0000   1.5608   0.3286   0.5574  99.0000   0.0000     320.6255     4178.387     3798.016    -2182.724            0     460.7998     1264.166     1949.282     3289.063            0
   135.6179    136.7910 213.2235239 -10.2726654 -15.6992     4.42    1.020 -12.4122 -14.4962 -15.0824 -15.4764   0.0000   0.0056   0.0024   0.0024   0.0030   0.0000     92232.84     628750.8      1078879      1550878            0     473.0483     1411.044     2347.899     4217.196            0
   179.4427    117.0968 213.2219164 -10.2733715  -7.8697     4.99    1.565  -6.1942  -8.4043  -8.5143  -5.9084   0.0000   1.6660   0.6566   0.9964  19.8424   0.0000     300.3785     2299.862     2545.185     230.8559            0     460.7998      1390.46     2335.311     4217.996            0
   202.1533    114.8114 213.2210808 -10.2734603  -9.5274     4.01    7.483  -7.3095  -8.6417  -9.1040  -9.2788   0.0000   0.6270   0.5382   0.5812   0.8901   0.0000     839.0877     2862.003     4381.293     5146.553            0     484.4472     1418.312     2344.864     4217.997            0
   186.9152    106.7406 213.2216473 -10.2737587  -8.4857     4.31    1.694  -7.0105  -8.5552  -7.9719  -7.9275   0.0000   0.8258   0.5812   1.6505   3.0908   0.0000     637.0903     2642.935     1544.432     1482.526            0     484.4466     1414.366     2347.244     4219.321            0
